Wavelength [nm]   original c0 (counts):    lamp-scaled c0   C0 from 20130708_VIS_C0_refined_Langley_at_MLO_screened_3.0x_averagethru20130712_20140718.dat.
171.85	NaN	NaN
172.67	2028609	NaN
173.48	-1869482	NaN
174.29	2699328	NaN
175.1	6.286836e+008	NaN
175.91	7.846398e+008	NaN
176.72	9.951241e+008	NaN
177.54	1.285429e+009	NaN
178.35	1.585937e+009	NaN
179.16	2.020983e+009	NaN
179.97	2.458725e+009	NaN
180.78	3.177925e+009	NaN
181.59	3.998475e+009	NaN
182.41	5.343974e+009	NaN
183.22	6.717651e+009	NaN
184.03	8.982459e+009	NaN
184.84	1.264514e+010	NaN
185.65	1.662249e+010	NaN
186.46	2.231436e+010	NaN
187.28	3.102947e+010	NaN
188.09	4.275419e+010	NaN
188.9	5.928423e+010	NaN
189.71	8.231198e+010	NaN
190.52	1.189508e+011	NaN
191.33	1.686924e+011	NaN
192.14	2.514587e+011	NaN
192.96	3.805496e+011	NaN
193.77	5.817637e+011	NaN
194.58	8.748677e+011	NaN
195.39	1.37805e+012	NaN
196.2	2.219826e+012	NaN
197.01	3.649244e+012	NaN
197.83	5.448988e+012	NaN
198.64	9.18114e+012	NaN
199.45	1.654746e+013	NaN
200.26	3.056002e+013	NaN
201.07	5.79612e+013	NaN
201.88	1.117184e+014	NaN
202.69	2.182057e+014	NaN
203.51	3.917189e+014	NaN
204.32	8.704314e+014	NaN
205.13	2.074249e+015	NaN
205.94	5.089333e+015	NaN
206.75	1.362379e+016	NaN
207.56	3.82192e+016	NaN
208.37	1.148446e+017	NaN
209.18	3.536308e+017	NaN
210	1.328149e+018	NaN
210.81	4.975373e+018	NaN
211.62	2.188835e+019	NaN
212.43	1.145426e+020	NaN
213.24	5.195414e+020	NaN
214.05	2.11761e+020	NaN
214.86	9.227689e+019	NaN
215.68	4.773633e+019	NaN
216.49	1.2353e+019	NaN
217.3	3.233624e+018	NaN
218.11	8.642827e+017	NaN
218.92	2.234215e+017	NaN
219.73	5.702468e+016	NaN
220.54	1.492297e+016	NaN
221.35	4.008143e+015	NaN
222.17	1.057877e+015	NaN
222.98	2.71019e+014	NaN
223.79	7.121426e+013	NaN
224.6	1.886223e+013	NaN
225.41	4.877357e+012	NaN
226.22	1.297885e+012	NaN
227.03	3.535399e+011	NaN
227.84	1.063488e+011	NaN
228.65	3.926157e+010	NaN
229.47	2.209827e+010	NaN
230.28	2.180279e+010	NaN
231.09	3.960277e+010	NaN
231.9	1.138297e+011	NaN
232.71	4.508195e+011	NaN
233.52	2.103245e+012	NaN
234.33	9.885109e+012	NaN
235.14	4.791752e+013	NaN
235.95	2.376577e+014	NaN
236.77	1.177315e+015	NaN
237.58	5.982021e+015	NaN
238.39	2.929148e+016	NaN
239.2	1.490093e+017	NaN
240.01	7.465636e+017	NaN
240.82	3.514647e+018	NaN
241.63	1.572746e+019	NaN
242.44	6.735741e+019	NaN
243.25	2.734614e+020	NaN
244.06	3.914944e+020	NaN
244.88	1.011046e+021	NaN
245.69	1.013181e+021	NaN
246.5	2.689557e+020	NaN
247.31	7.800835e+019	NaN
248.12	2.449554e+019	NaN
248.93	1.083569e+019	NaN
249.74	5.294607e+018	NaN
250.55	3.023811e+018	NaN
251.36	1.847677e+018	NaN
252.17	1.339669e+018	NaN
252.98	9.665031e+017	NaN
253.79	8.814124e+017	NaN
254.61	7.913951e+017	NaN
255.42	8.298091e+017	NaN
256.23	1.011624e+018	NaN
257.04	1.473721e+018	NaN
257.85	2.183248e+018	NaN
258.66	3.531301e+018	NaN
259.47	7.61541e+018	NaN
260.28	1.95138e+019	NaN
261.09	5.298224e+019	NaN
261.9	1.934467e+020	NaN
262.71	8.682101e+020	NaN
263.52	2.108375e+021	NaN
264.33	8.171765e+020	NaN
265.14	4.396039e+020	NaN
265.95	1.555159e+020	NaN
266.76	3.432129e+019	NaN
267.58	6.802769e+018	NaN
268.39	1.229897e+018	NaN
269.2	2.291731e+017	NaN
270.01	4.940211e+016	NaN
270.82	9.672914e+015	NaN
271.63	1.80156e+015	NaN
272.44	3.278462e+014	NaN
273.25	5.211986e+013	NaN
274.06	8.789199e+012	NaN
274.87	1.554211e+012	NaN
275.68	2.982346e+011	NaN
276.49	6.237026e+010	NaN
277.3	1.334123e+010	NaN
278.11	2.755046e+009	NaN
278.92	6.102165e+008	NaN
279.73	1.357777e+008	NaN
280.54	3.039063e+007	NaN
281.35	7158739	NaN
282.16	1893513	NaN
282.97	556906.1	NaN
283.78	175692.5	NaN
284.59	55891.74	NaN
285.4	19094.28	NaN
286.21	7451.773	NaN
287.02	3073.069	NaN
287.83	1258.121	NaN
288.64	559.7644	NaN
289.45	268.3553	NaN
290.26	144.3155	NaN
291.07	76.94815	NaN
291.88	43.15214	NaN
292.69	27.00924	NaN
293.5	16.71056	NaN
294.31	11.40127	NaN
295.12	7.902023	NaN
295.93	5.689275	NaN
296.74	4.302349	NaN
297.55	3.30219	NaN
298.36	2.636804	NaN
299.17	2.146096	NaN
299.98	1.818963	NaN
300.79	1.568036	9.43956
301.6	1.384221	9.397342
302.41	1.240344	9.230359
303.22	1.126882	9.999327
304.03	1.03427	10.59804
304.84	0.955828	9.836751
305.65	0.8933612	9.029371
306.46	0.8527884	8.569686
307.27	0.7966918	8.554647
308.08	0.7749971	7.935881
308.89	0.7497595	7.559925
309.7	0.7213639	7.151332
310.51	0.7036136	7.895866
311.32	0.6851425	8.508974
312.13	0.6722483	8.462464
312.94	0.6648922	8.524522
313.75	0.6549551	8.144491
314.56	0.6547894	7.998177
315.37	0.6475402	7.550441
316.18	0.650969	7.496785
316.98	0.6553619	7.815772
317.79	0.6604142	7.262847
318.6	0.6663519	7.416863
319.41	0.675516	7.276143
320.22	0.6864851	7.604581
321.03	0.6956914	7.768193
321.84	0.7053582	7.154517
322.65	0.7288784	6.357804
323.46	0.7427251	5.861541
324.27	0.762108	6.180515
325.08	0.7819799	6.30525
325.89	0.8039438	7.325763
326.7	0.8262916	7.863218
327.51	0.8554891	7.772074
328.31	0.879452	8.243764
329.12	0.9168529	8.978818
329.93	0.940232	8.645743
330.74	0.9998501	8.095046
331.55	1.070236	7.982751
332.36	1.196583	7.757011
333.17	1.426298	7.56039
333.98	1.867709	8.294207
334.79	2.618048	9.18376
335.6	3.702796	9.864225
336.4	5.33983	11.11829
337.21	7.982488	13.87487
338.02	11.78628	17.98469
338.83	16.43353	22.75209
339.64	21.65526	27.93414
340.45	26.32908	32.24412
341.26	30.41325	36.05934
342.07	35.13408	40.54385
342.87	39.05748	44.2049
343.68	40.00455	44.32223
344.49	41.85782	45.22982
345.3	46.73672	50.37391
346.11	51.15897	54.84829
346.92	54.06752	57.75187
347.73	56.07054	59.56143
348.53	58.07955	61.92282
349.34	61.84529	65.92394
350.15	67.86055	72.97918
350.96	71.55934	76.28276
351.77	71.62844	75.67744
352.58	73.32007	78.34534
353.39	80.11925	86.44444
354.19	87.9916	94.77254
355	91.20408	97.44777
355.81	89.08231	94.32921
356.62	83.68112	87.41011
357.43	78.62908	81.65167
358.24	78.34501	82.00545
359.04	88.571	94.63156
359.85	101.2372	107.9557
360.66	102.468	107.6862
361.47	101.4626	107.0454
362.28	107.114	113.3081
363.08	113.2596	119.1617
363.89	117.1518	123.3265
364.7	123.4347	129.7247
365.51	134.5901	141.8745
366.32	143.5759	149.7217
367.12	144.5321	149.3412
367.93	142.6352	146.4126
368.74	145.2834	148.881
369.55	151.207	154.803
370.36	152.605	156.046
371.16	150.8964	155.1956
371.97	146.7024	151.5015
372.78	138.7812	143.4362
373.59	131.7071	136.3879
374.39	132.2066	137.3426
375.2	141.8746	148.4071
376.01	154.7675	161.5744
376.82	169.1589	176.8257
377.63	184.0767	192.9887
378.43	187.1745	195.0948
379.24	178.7548	184.7705
380.05	175.4221	183.0722
380.86	173.5674	181.3103
381.66	157.7289	162.8853
382.47	135.5607	139.2453
383.28	126.9673	131.7328
384.08	138.4072	145.7909
384.89	155.3959	164.0476
385.7	163.1499	170.5663
386.51	165.2446	172.3668
387.31	166.9633	173.3953
388.12	171.1649	177.8994
388.93	182.8227	191.2964
389.74	200.1103	209.7321
390.54	213.7788	222.9266
391.35	213.3339	220.3055
392.16	189.6952	192.433
392.96	158.0389	159.6023
393.77	154.6535	160.496
394.58	182.8199	191.5124
395.38	200.9008	206.6834
396.19	189.7755	191.6869
397	186.4876	190.8657
397.81	220.7177	230.4397
398.61	269.4217	279.9175
399.42	301.6289	312.3538
400.23	318.3456	329.7583
401.03	329.9325	341.2632
401.84	338.2793	349.1807
402.65	340.8629	350.3245
403.45	339.1856	348.7749
404.26	337.4712	346.3435
405.07	335.6445	343.8984
405.87	334.0352	342.3402
406.68	335.8193	344.1791
407.49	344.473	352.5772
408.29	356.0678	362.5898
409.1	359.843	364.5701
409.9	358.1052	362.4261
410.71	364.0995	369.9182
411.52	378.6051	384.6312
412.32	389.3349	394.2217
413.13	392.4029	396.7829
413.94	393.7927	398.6048
414.74	396.6575	400.981
415.55	400.3012	404.727
416.35	401.9346	406.5551
417.16	399.4266	403.5288
417.97	395.6665	400.7682
418.77	395.0267	402.6378
419.58	398.8787	408.7933
420.38	405.9984	418.6092
421.19	410.519	425.2761
422	408.529	424.8767
422.8	403.8784	421.4586
423.61	403.3184	423.3093
424.41	406.2542	426.6014
425.22	407.4079	427.8013
426.03	404.8151	425.2643
426.83	400.9087	420.7193
427.64	395.7735	413.2581
428.44	384.5256	400.1659
429.25	364.7024	379.8013
430.05	348.0314	365.5679
430.86	354.2671	375.049
431.66	381.9331	403.3868
432.47	410.2381	429.0056
433.28	422.2873	441.1003
434.08	427.0165	447.6082
434.89	437.6463	459.3018
435.69	452.772	473.1064
436.5	460.5425	478.8199
437.3	455.2872	473.7147
438.11	446.3058	466.6517
438.91	444.4655	466.9197
439.72	452.283	475.497
440.52	467.1624	490.1011
441.33	482.2052	506.0915
442.13	494.7541	518.9315
442.94	503.1407	526.7973
443.74	506.598	529.5679
444.55	505.3929	528.3654
445.35	503.3044	525.0905
446.16	506.3226	527.0671
446.96	515.0767	535.7921
447.77	526.898	547.0158
448.57	537.2516	558.0841
449.38	546.7914	569.5727
450.18	555.7863	578.4775
450.99	559.3585	581.0379
451.79	553.3305	574.1354
452.6	543.5189	563.8039
453.4	538.2765	559.9462
454.2	539.9394	561.228
455.01	547.6757	567.1076
455.81	556.1694	572.4119
456.62	562.299	575.5047
457.42	564.5993	575.5948
458.23	563.3393	572.696
459.03	562.4511	571.8881
459.83	565.7016	574.593
460.64	572.4802	580.3363
461.44	579.8534	585.7083
462.25	584.3954	588.5557
463.05	583.8543	585.8939
463.86	580.2513	581.1456
464.66	576.6616	576.2994
465.46	573.4936	573.5104
466.27	572.2305	572.7861
467.07	573.5768	573.6894
467.87	576.0972	576.3731
468.68	578.336	577.9061
469.48	579.0867	579.2845
470.29	580.9561	581.1511
471.09	586.5388	586.0558
471.89	593.7845	592.5734
472.7	601.3183	598.7259
473.5	607.2334	602.9102
474.3	610.2144	606.6091
475.11	612.1053	608.6696
475.91	614.6749	611.5147
476.71	618.326	615.4478
477.52	623.3197	621.137
478.32	628.6922	626.0783
479.12	632.6886	630.246
479.93	634.8928	632.9076
480.73	637.1699	635.2437
481.53	637.725	635.5252
482.34	635.7572	633.2856
483.14	630.3624	627.6306
483.94	618.2241	615.3086
484.75	597.0261	596.9629
485.55	575.3202	580.088
486.35	564.5594	571.8467
487.16	566.9828	576.4805
487.96	581.3524	588.964
488.76	600.0613	603.2625
489.56	612.2143	613.7383
490.37	615.2573	618.3716
491.17	613.5131	618.4246
491.97	610.5732	617.9951
492.77	610.4382	619.9852
493.58	615.5613	625.4715
494.38	621.7032	631.6681
495.18	625.3423	635.709
495.98	626.6855	636.5878
496.79	623.5591	634.3629
497.59	618.8434	630.0208
498.39	614.3107	625.1613
499.19	607.7686	619.1698
500	600.8272	600.8272
500.8	596.1707	596.1707
501.6	594.3102	594.3102
502.4	595.6475	595.6475
503.2	599.3693	599.3693
504.01	605.363	605.363
504.81	611.6768	611.6768
505.61	615.348	615.348
506.41	615.7572	615.7572
507.21	613.7913	613.7913
508.02	611.1412	611.1412
508.82	609.4022	609.4022
509.62	609.9036	609.9036
510.42	611.4417	611.4417
511.22	610.145	610.145
512.02	605.8686	605.8686
512.83	599.8494	599.8494
513.63	593.354	593.354
514.43	586.8177	586.8177
515.23	576.1392	576.1392
516.03	561.4261	561.4261
516.83	548.659	548.659
517.63	541.7048	541.7048
518.44	545.0914	545.0914
519.24	557.2819	557.2819
520.04	570.1994	570.1994
520.84	579.8691	579.8691
521.64	584.39	584.39
522.44	587.7097	587.7097
523.24	592.2773	592.2773
524.04	595.3064	595.3064
524.84	593.4602	593.4602
525.64	585.8281	585.8281
526.45	578.3622	578.3622
527.25	578.0991	578.0991
528.05	584.974	584.974
528.85	596.7795	596.7795
529.65	608.2599	608.2599
530.45	613.0315	613.0315
531.25	610.3739	610.3739
532.05	605.4808	605.4808
532.85	601.6143	601.6143
533.65	601.369	601.369
534.45	605.234	605.234
535.25	609.0349	609.0349
536.05	609.945	609.945
536.85	609.0636	609.0636
537.65	606.1172	606.1172
538.45	601.2895	601.2895
539.25	596.3874	596.3874
540.05	592.9282	592.9282
540.85	591.7451	591.7451
541.65	593.1965	593.1965
542.45	597.558	597.558
543.25	602.0569	602.0569
544.05	605.0298	605.0298
544.85	606.6828	606.6828
545.65	606.1183	606.1183
546.45	603.2954	603.2954
547.25	600.263	600.263
548.05	598.5154	598.5154
548.85	597.794	597.794
549.65	597.9784	597.9784
550.45	598.0734	598.0734
551.25	597.5746	597.5746
552.05	597.1661	597.1661
552.84	597.2762	597.2762
553.64	598.6383	598.6383
554.44	598.9432	598.9432
555.24	596.7147	596.7147
556.04	593.3557	593.3557
556.84	588.8783	588.8783
557.64	582.2478	582.2478
558.44	577.0216	577.0216
559.24	576.427	576.427
560.04	576.6129	576.6129
560.83	578.3583	578.3583
561.63	583.2839	583.2839
562.43	586.8339	586.8339
563.23	588.1532	588.1532
564.03	588.8482	588.8482
564.83	588.6591	597.5042
565.63	587.7993	597.5097
566.42	587.5433	598.6249
567.22	589.8733	600.2119
568.02	592.483	601.0307
568.82	593.4406	600.8539
569.62	592.5293	600.276
570.42	591.5553	601.5262
571.21	595.274	605.173
572.01	602.6786	611.3329
572.81	610.0428	616.8899
573.61	614.9191	619.8471
574.41	613.9936	619.4781
575.2	611.0043	617.2315
576	608.0862	614.9311
576.8	604.0474	612.7165
577.6	600.5834	611.1579
578.39	598.0661	609.7274
579.19	596.1678	609.7132
579.99	595.8961	611.0629
580.79	597.0626	612.9406
581.58	598.2729	615.0642
582.38	598.5888	616.5182
583.18	597.766	616.3757
583.98	594.4117	613.6279
584.77	589.4445	609.851
585.57	585.1538	605.566
586.37	581.543	600.2237
587.16	575.7541	594.2271
587.96	566.8798	585.0918
588.76	558.9884	576.32
589.55	555.6759	571.9075
590.35	557.6717	573.8354
591.15	564.2017	578.868
591.95	570.411	582.6495
592.74	572.774	583.7872
593.54	572.6609	583.2561
594.33	571.9891	582.194
595.13	571.6032	580.7573
595.93	571.4178	579.6858
596.72	570.2781	577.4083
597.52	568.921	574.1058
598.32	567.1243	570.1959
599.11	564.77	566.4045
599.91	562.334	562.9482
600.71	560.1087	560.5641
601.5	558.7049	559.6954
602.3	559.677	561.253
603.09	562.2576	564.0097
603.89	565.1667	566.8226
604.69	566.7129	568.6768
605.48	566.4666	568.4751
606.28	565.2488	568.0412
607.07	563.282	567.3019
607.87	560.8551	566.1577
608.66	558.0072	564.81
609.46	555.2161	564.2707
610.25	553.4469	564.4853
611.05	552.2377	565.0036
611.85	550.1081	564.2604
612.64	547.66	562.7713
613.44	545.1839	560.7739
614.23	542.5772	558.5326
615.03	539.1143	556.0369
615.82	536.3566	553.9926
616.62	535.8951	554.0152
617.41	537.2533	556.5025
618.21	540.6853	560.074
619	544.6005	562.6813
619.8	546.4363	563.9178
620.59	545.8406	563.0704
621.39	543.8635	560.1351
622.18	540.2059	556.1812
622.97	535.8449	552.1552
623.77	531.7416	548.4913
624.56	528.4489	545.7228
625.36	527.6096	545.5941
626.15	527.4457	547.201
626.95	527.9865	550.0634
627.74	527.8678	551.4541
628.53	526.2366	550.7769
629.33	523.6683	547.7269
630.12	521.0854	542.7624
630.92	518.41	538.0163
631.71	517.2206	534.9661
632.5	516.5076	533.3697
633.3	516.0429	532.6887
634.09	515.4111	531.5817
634.89	513.6713	529.5635
635.68	512.292	512.292
636.47	511.8249	511.8249
637.27	511.684	511.684
638.06	510.4976	510.4976
638.85	507.0163	507.0163
639.65	502.529	502.529
640.44	498.2224	498.2224
641.23	495.4309	495.4309
642.03	494.4376	494.4376
642.82	494.11	494.11
643.61	492.9624	492.9624
644.41	490.9096	490.9096
645.2	488.0495	488.0495
645.99	485.9761	485.9761
646.78	484.6309	484.6309
647.58	483.011	483.011
648.37	479.5667	479.5667
649.16	475.6943	475.6943
649.96	473.8481	473.8481
650.75	474.4047	474.4047
651.54	475.8429	475.8429
652.33	475.4856	475.4856
653.12	473.0823	473.0823
653.92	466.8	466.8
654.71	452.8254	452.8254
655.5	434.5646	434.5646
656.29	423.9406	423.9406
657.09	426.8896	426.8896
657.88	439.9421	439.9421
658.67	452.4959	452.4959
659.46	458.5778	458.5778
660.25	461.3985	461.3985
661.04	463.5991	463.5991
661.84	464.5343	464.5343
662.63	463.6178	463.6178
663.42	462.0492	462.0492
664.21	461.4728	461.4728
665	461.5811	461.5811
665.79	461.5835	461.5835
666.59	461.0038	461.0038
667.38	460.4238	460.4238
668.17	460.526	460.526
668.96	460.2222	460.2222
669.75	458.9901	458.9901
670.54	456.7025	456.7025
671.33	454.604	454.604
672.12	453.8031	453.8031
672.91	453.9806	453.9806
673.7	453.8981	453.8981
674.49	453.1826	453.1826
675.29	452.3425	452.3425
676.08	451.7592	451.7592
676.87	451.3969	451.3969
677.66	450.4571	450.4571
678.45	448.9382	448.9382
679.24	447.3662	447.3662
680.03	445.4907	445.4907
680.82	443.844	443.844
681.61	442.3115	442.3115
682.4	440.3952	440.3952
683.19	437.2396	437.2396
683.98	433.4729	433.4729
684.77	428.7286	428.179
685.56	418.4109	429.0345
686.35	400.795	430.8079
687.14	385.5433	432.2074
687.93	381.8048	432.1864
688.72	386.7054	431.4492
689.5	391.6761	429.9998
690.29	395.2103	427.3437
691.08	398.8194	423.7076
691.87	402.6512	420.6377
692.66	405.972	418.96
693.45	407.8457	417.2485
694.24	408.1131	415.0217
695.03	407.1879	412.6326
695.82	406.07	410.6219
696.61	403.8717	408.294
697.4	400.7873	405.3972
698.18	398.5587	402.4452
698.97	397.2413	398.7367
699.76	395.0717	393.0655
700.55	391.5061	387.5271
701.34	388.2585	383.7687
702.13	386.4934	382.4023
702.92	386.4132	382.9411
703.7	387.4467	384.3746
704.49	388.4357	385.1531
705.28	387.6588	383.727
706.07	386.1483	382.1178
706.86	384.7442	380.8642
707.64	383.506	379.6751
708.43	381.6464	377.3269
709.22	380.1737	375.8567
710.01	379.5646	375.4111
710.79	378.3448	374.4716
711.58	376.0268	371.8343
712.37	374.1793	369.2951
713.16	373.6187	368.2247
713.94	373.2121	366.603
714.73	371.941	364.1761
715.52	369.8019	359.536
716.31	367.1232	351.1951
717.09	363.3425	340.1539
717.88	357.4753	328.6143
718.67	351.9426	320.7793
719.45	349.9811	319.4678
720.24	351.2037	324.8633
721.03	354.0643	334.3834
721.81	356.5565	340.6636
722.6	356.4163	338.7582
723.39	354.8928	332.6531
724.17	353.6772	329.2247
724.96	353.5218	329.4928
725.75	353.6018	330.6929
726.53	353.2988	331.0931
727.32	351.8605	329.7899
728.11	348.8383	327.9106
728.89	346.1951	326.7801
729.68	346.8151	328.6538
730.46	348.2826	331.5759
731.25	348.6246	334.1553
732.04	348.5937	337.5542
732.82	348.2596	340.6637
733.61	348.6743	343.4395
734.39	348.0761	343.8645
735.18	345.8746	341.7429
735.96	343.608	339.9122
736.75	342.1882	339.4536
737.53	340.1107	338.5329
738.32	336.0987	335.369
739.1	333.0194	333.3992
739.89	331.6845	332.9104
740.67	329.2725	331.1387
741.46	327.3198	329.9
742.24	328.1166	328.1166
743.03	329.6542	329.6542
743.81	329.1115	329.1115
744.6	327.4533	327.4533
745.38	327.4849	327.4849
746.17	327.2633	327.2633
746.95	326.1509	326.1509
747.74	324.0375	324.0375
748.52	321.0334	321.0334
749.3	318.2604	318.2604
750.09	316.3695	316.3695
750.87	314.5209	314.5209
751.66	313.1165	313.1165
752.44	312.121	312.121
753.22	311.8571	311.8571
754.01	311.5632	311.5632
754.79	309.1979	309.1979
755.58	306.5715	306.5715
756.36	304.8467	304.8467
757.14	303.1092	303.1092
757.93	296.1755	303.9335
758.71	267.7038	301.2731
759.49	207.5645	299.2954
760.28	157.5391	297.2458
761.06	161.5071	294.7361
761.84	187.3055	292.5693
762.63	197.6037	292.6449
763.41	202.1145	293.5521
764.19	213.5304	292.6315
764.97	228.6977	288.0068
765.76	242.6991	280.7244
766.54	256.2226	278.199
767.32	268.6184	281.0686
768.1	276.3827	282.7726
768.89	279.6995	281.909
769.67	280.9651	279.8723
770.45	281.2392	281.2392
771.23	280.3505	280.3505
772.02	280.04	280.04
772.8	280.5107	280.5107
773.58	279.6473	279.6473
774.36	277.0823	277.0823
775.14	276.0868	276.0868
775.92	276.7869	276.7869
776.71	276.1608	276.1608
777.49	274.6647	274.6647
778.27	273.8849	273.8849
779.05	272.6492	272.6492
779.83	271.2769	271.2769
780.61	271.0488	271.0488
781.39	272.0944	272.0944
782.18	271.7337	271.7337
782.96	268.7551	268.7551
783.74	267.0319	267.0319
784.52	266.6586	266.6586
785.3	266.5117	266.5117
786.08	266.4888	266.4888
786.86	265.5773	265.5773
787.64	263.5091	263.5091
788.42	261.7532	261.7532
789.2	260.9673	260.9673
789.98	260.1025	260.1025
790.76	258.0954	258.0954
791.54	254.8435	254.8435
792.32	251.6687	251.6687
793.1	249.2078	249.2078
793.88	248.1005	248.1005
794.66	248.858	248.858
795.44	249.6567	249.6567
796.22	249.3324	249.3324
797	249.5961	249.5961
797.78	249.6195	249.6195
798.56	248.1835	248.1835
799.34	246.0614	246.0614
800.12	243.8664	243.8664
800.9	242.3508	242.3508
801.68	241.8904	241.8904
802.46	241.5398	241.5398
803.24	240.6113	240.6113
804.01	238.1581	238.1581
804.79	235.22	235.22
805.57	234.2028	234.2028
806.35	234.9317	234.9317
807.13	235.1149	235.1149
807.91	232.5639	232.5639
808.69	228.6251	228.6251
809.47	226.5414	226.5414
810.24	227.6265	227.6265
811.02	229.3985	229.3985
811.8	229.1161	229.1161
812.58	226.8815	227.4473
813.36	223.6073	225.441
814.13	220.1355	222.968
814.91	218.1569	221.8444
815.69	217.2088	221.6781
816.47	216.3	221.376
817.24	214.0165	219.1313
818.02	210.6321	215.292
