% wavelengths for 4STARB VIS spectrometer (1044 channels) derived from 88880_Y585_136823_test-cert_20130911-130744.pdf and recorded on 2017-10-03 23:03:03.
% C0 (TOA Counts) for 4STARB VIS spectrometer (1044 channels) derived from the Ames Rooftop comparison and recorded on 2017-10-03 23:03:03.
% See 4STARB_20170513.ipynb for details of the rooftop comparison and c0 file generation. Yohei Shinozuka
Pix Wavelength C0 C0err
0 171.70          0      1e+10
1 172.51 3.5780393e+11      1e+10
2 173.33 1.6025123e+11      1e+10
3 174.14 7.9784615e+10      1e+10
4 174.95 4.8098452e+11      1e+10
5 175.76 2.6942378e+11      1e+10
6 176.58 1.4457799e+11      1e+10
7 177.39 7.9109594e+10      1e+10
8 178.20 4.492638e+10      1e+10
9 179.01 2.5111618e+10      1e+10
10 179.83 1.4482316e+10      1e+10
11 180.64 8.4958836e+09      1e+10
12 181.45 5.0968324e+09      1e+10
13 182.26 3.069816e+09      1e+10
14 183.08 1.8718748e+09      1e+10
15 183.89 1.1569425e+09      1e+10
16 184.70 7.2641691e+08      1e+10
17 185.51 4.6595341e+08      1e+10
18 186.33 2.9856514e+08      1e+10
19 187.14 1.9679664e+08      1e+10
20 187.95 1.2936332e+08      1e+10
21 188.76   87165730      1e+10
22 189.57   59513363      1e+10
23 190.39   40574662      1e+10
24 191.20   27879604      1e+10
25 192.01   19402223      1e+10
26 192.82   13610125      1e+10
27 193.64  9589629.9      1e+10
28 194.45    6943383      1e+10
29 195.26  5041547.3      1e+10
30 196.07  3602811.2      1e+10
31 196.89  2633451.7      1e+10
32 197.70  1980271.2      1e+10
33 198.51  1462347.8      1e+10
34 199.32  1103597.5      1e+10
35 200.14  829121.52      1e+10
36 200.95  637854.71      1e+10
37 201.76  486036.77      1e+10
38 202.57  373743.76      1e+10
39 203.39  288584.39      1e+10
40 204.20  227636.14      1e+10
41 205.01  181047.35      1e+10
42 205.82  141544.34      1e+10
43 206.64  112261.43      1e+10
44 207.45  90722.089      1e+10
45 208.26  72614.505      1e+10
46 209.07   58776.54      1e+10
47 209.88   47496.89      1e+10
48 210.70  38474.209      1e+10
49 211.51    32020.7      1e+10
50 212.32  26072.042      1e+10
51 213.13  21510.906      1e+10
52 213.95  17836.696      1e+10
53 214.76  14951.891      1e+10
54 215.57  12497.486      1e+10
55 216.38  10588.725      1e+10
56 217.19   8860.526      1e+10
57 218.01  7562.0332      1e+10
58 218.82  6306.8313      1e+10
59 219.63  5428.3418      1e+10
60 220.44  4638.3068      1e+10
61 221.26  3985.1078      1e+10
62 222.07  3437.5147      1e+10
63 222.88  2952.9598      1e+10
64 223.69  2545.0591      1e+10
65 224.50  2226.7337      1e+10
66 225.32  1945.8215      1e+10
67 226.13  1694.8126      1e+10
68 226.94  1475.4139      1e+10
69 227.75   1315.831      1e+10
70 228.56  1156.2661      1e+10
71 229.38  1019.3911      1e+10
72 230.19  910.23014      1e+10
73 231.00  798.57928      1e+10
74 231.81  730.00824      1e+10
75 232.63  634.75597      1e+10
76 233.44  568.99162      1e+10
77 234.25  516.64334      1e+10
78 235.06  463.85479      1e+10
79 235.87  416.86515      1e+10
80 236.69  370.83388      1e+10
81 237.50   341.1027      1e+10
82 238.31   311.4886      1e+10
83 239.12  281.06458      1e+10
84 239.93   256.6447      1e+10
85 240.74  228.73213      1e+10
86 241.56  213.45223      1e+10
87 242.37  193.56262      1e+10
88 243.18  178.16608      1e+10
89 243.99  162.70113      1e+10
90 244.80  148.89559      1e+10
91 245.62  138.60289      1e+10
92 246.43  126.29127      1e+10
93 247.24  117.10909      1e+10
94 248.05  109.85628      1e+10
95 248.86  100.54967      1e+10
96 249.68  93.291929      1e+10
97 250.49  87.370968      1e+10
98 251.30  81.044505      1e+10
99 252.11  75.289698      1e+10
100 252.92  71.216916      1e+10
101 253.73  65.464338      1e+10
102 254.55  61.489395      1e+10
103 255.36  58.107484      1e+10
104 256.17   54.93188      1e+10
105 256.98  51.494285      1e+10
106 257.79  47.772956      1e+10
107 258.60  45.248972      1e+10
108 259.42  43.084271      1e+10
109 260.23  40.631311      1e+10
110 261.04  38.134949      1e+10
111 261.85   35.80076      1e+10
112 262.66   33.84293      1e+10
113 263.47  32.394791      1e+10
114 264.29  30.597073      1e+10
115 265.10  28.947966      1e+10
116 265.91  27.875357      1e+10
117 266.72  26.515366      1e+10
118 267.53  25.082344      1e+10
119 268.34  23.778135      1e+10
120 269.15  22.842737      1e+10
121 269.97  21.828178      1e+10
122 270.78  20.802446      1e+10
123 271.59  20.009442      1e+10
124 272.40  18.987004      1e+10
125 273.21  18.571211      1e+10
126 274.02  17.613199      1e+10
127 274.83  16.930388      1e+10
128 275.65  16.338507      1e+10
129 276.46  15.432611      1e+10
130 277.27  15.001453      1e+10
131 278.08  14.444166      1e+10
132 278.89  13.941978      1e+10
133 279.70  13.442235      1e+10
134 280.51  13.021374      1e+10
135 281.33  12.569699      1e+10
136 282.14  12.067095      1e+10
137 282.95  11.738517      1e+10
138 283.76  11.386203      1e+10
139 284.57  10.969319      1e+10
140 285.38    10.6396      1e+10
141 286.19  10.407634      1e+10
142 287.00  10.113405      1e+10
143 287.81  9.8369989      1e+10
144 288.63  9.4838277      1e+10
145 289.44  9.2177039      1e+10
146 290.25  9.0859159      1e+10
147 291.06  8.7934731      1e+10
148 291.87  8.5100874      1e+10
149 292.68  8.3593799      1e+10
150 293.49  8.2043834      1e+10
151 294.30  8.0536725      1e+10
152 295.11  7.9226068      1e+10
153 295.93   7.741487      1e+10
154 296.74  7.7063345      1e+10
155 297.55  7.5105462      1e+10
156 298.36  7.4329389      1e+10
157 299.17   7.444649      1e+10
158 299.98  7.4372031      1e+10
159 300.79  7.5752801      1e+10
160 301.60  7.7970567      1e+10
161 302.41  8.3356985      1e+10
162 303.22  9.1306983      1e+10
163 304.03  10.107007      1e+10
164 304.84  11.218971      1e+10
165 305.66  12.475028      1e+10
166 306.47  14.084666      1e+10
167 307.28   16.39738      1e+10
168 308.09  18.574733      1e+10
169 308.90  20.082285      1e+10
170 309.71  22.268079      1e+10
171 310.52  27.187654      1e+10
172 311.33  32.208459      1e+10
173 312.14  35.662095      1e+10
174 312.95  38.966869      1e+10
175 313.76  42.550659      1e+10
176 314.57  45.596247      1e+10
177 315.38  47.272713      1e+10
178 316.19  50.481388      1e+10
179 317.00  57.411868      1e+10
180 317.81  62.095614      1e+10
181 318.62   64.42512      1e+10
182 319.43  69.207877      1e+10
183 320.25  75.616037      1e+10
184 321.06  78.871714      1e+10
185 321.87  78.225796      1e+10
186 322.68  77.671261      1e+10
187 323.49  81.975622      1e+10
188 324.30  90.963294      1e+10
189 325.11  101.62718      1e+10
190 325.92  115.62112      1e+10
191 326.73  125.97677      1e+10
192 327.54  127.15775      1e+10
193 328.35  128.16358      1e+10
194 329.16   138.2007      1e+10
195 329.97  147.10038      1e+10
196 330.78  144.59236      1e+10
197 331.59  141.98969      1e+10
198 332.40   143.4767      1e+10
199 333.21  143.48169      1e+10
200 334.02  144.85849      1e+10
201 334.83  149.28016      1e+10
202 335.64  147.44659      1e+10
203 336.45  139.09792      1e+10
204 337.26  137.91754      1e+10
205 338.07  146.14083      1e+10
206 338.88  155.64731      1e+10
207 339.69  163.80981      1e+10
208 340.50  167.37649      1e+10
209 341.31  165.38177      1e+10
210 342.12  167.32997      1e+10
211 342.93  169.92352      1e+10
212 343.74  161.53718      1e+10
213 344.55     153.09      1e+10
214 345.36  158.53929      1e+10
215 346.17  164.87918      1e+10
216 346.98  166.29379      1e+10
217 347.79  165.24247      1e+10
218 348.59  164.61326      1e+10
219 349.40  167.62866      1e+10
220 350.21  177.85472      1e+10
221 351.02  184.40749      1e+10
222 351.83  180.48739      1e+10
223 352.64  177.71532      1e+10
224 353.45  186.43933      1e+10
225 354.26  199.24035      1e+10
226 355.07  202.09089      1e+10
227 355.88    193.293      1e+10
228 356.69  176.75849      1e+10
229 357.50  160.75266      1e+10
230 358.31  152.40294      1e+10
231 359.12  163.76046      1e+10
232 359.93  185.45623      1e+10
233 360.74  186.72815      1e+10
234 361.55  180.35242      1e+10
235 362.35  186.82488      1e+10
236 363.16  195.85168      1e+10
237 363.97  200.37955      1e+10
238 364.78  207.68389      1e+10
239 365.59  223.83152      1e+10
240 366.40  238.55191      1e+10
241 367.21  239.43543      1e+10
242 368.02  234.07803      1e+10
243 368.83  234.91015      1e+10
244 369.64  243.52829      1e+10
245 370.44  245.13657      1e+10
246 371.25  241.64338      1e+10
247 372.06  235.41907      1e+10
248 372.87  222.45472      1e+10
249 373.68  209.95967      1e+10
250 374.49  208.10818      1e+10
251 375.30   221.6288      1e+10
252 376.11  241.09601      1e+10
253 376.92   261.8737      1e+10
254 377.72  286.64725      1e+10
255 378.53  294.45461      1e+10
256 379.34  280.29953      1e+10
257 380.15  274.51687      1e+10
258 380.96  275.08467      1e+10
259 381.77  252.99876      1e+10
260 382.58   217.7709      1e+10
261 383.38  201.11009      1e+10
262 384.19  217.89682      1e+10
263 385.00  246.46982      1e+10
264 385.81  259.30218      1e+10
265 386.62  262.54646      1e+10
266 387.43  265.33395      1e+10
267 388.23  270.29987      1e+10
268 389.04  287.82247      1e+10
269 389.85  315.36941      1e+10
270 390.66  337.97479      1e+10
271 391.47  341.69825      1e+10
272 392.28  307.35285      1e+10
273 393.08  252.30805      1e+10
274 393.89  241.53674      1e+10
275 394.70  288.31534      1e+10
276 395.51  321.99035      1e+10
277 396.32  301.50205      1e+10
278 397.12  287.98304      1e+10
279 397.93   340.6327      1e+10
280 398.74  418.02263      1e+10
281 399.55  467.45848      1e+10
282 400.36  491.95091      1e+10
283 401.16  509.33722      1e+10
284 401.97  522.21801      1e+10
285 402.78  525.01918      1e+10
286 403.59  520.91507      1e+10
287 404.39  516.59936      1e+10
288 405.20  512.26043      1e+10
289 406.01  508.06532      1e+10
290 406.82    508.292      1e+10
291 407.63  519.04302      1e+10
292 408.43  536.48367      1e+10
293 409.24  541.77973      1e+10
294 410.05  534.46081      1e+10
295 410.86  541.58253      1e+10
296 411.66  564.67674      1e+10
297 412.47  579.21487      1e+10
298 413.28  582.21258      1e+10
299 414.08  584.18618      1e+10
300 414.89  588.09266      1e+10
301 415.70  594.16252      1e+10
302 416.51  598.17482      1e+10
303 417.31  594.21778      1e+10
304 418.12  588.99514      1e+10
305 418.93  589.26114      1e+10
306 419.74  595.17418      1e+10
307 420.54  607.19408      1e+10
308 421.35  616.89622      1e+10
309 422.16  613.25477      1e+10
310 422.96  605.70937      1e+10
311 423.77  607.01897      1e+10
312 424.58  612.87419      1e+10
313 425.38  615.01645      1e+10
314 426.19  612.78428      1e+10
315 427.00  607.59492      1e+10
316 427.80   601.6457      1e+10
317 428.61  587.90261      1e+10
318 429.42  557.50081      1e+10
319 430.23  527.73754      1e+10
320 431.03  537.69421      1e+10
321 431.84  585.43571      1e+10
322 432.65  629.48505      1e+10
323 433.45   644.8075      1e+10
324 434.26  650.09455      1e+10
325 435.06    667.567      1e+10
326 435.87  693.46958      1e+10
327 436.68   706.8314      1e+10
328 437.48  697.53001      1e+10
329 438.29  681.36959      1e+10
330 439.10  679.51896      1e+10
331 439.90  693.47039      1e+10
332 440.71  715.63506      1e+10
333 441.52  739.55667      1e+10
334 442.32  759.46547      1e+10
335 443.13  771.56186      1e+10
336 443.93  777.23814      1e+10
337 444.74  776.30303      1e+10
338 445.55  771.73716      1e+10
339 446.35  775.54035      1e+10
340 447.16  791.18302      1e+10
341 447.96  809.49754      1e+10
342 448.77  823.31902      1e+10
343 449.58  837.82514      1e+10
344 450.38  853.98687      1e+10
345 451.19  860.71076      1e+10
346 451.99  850.03918      1e+10
347 452.80  832.54899      1e+10
348 453.60  825.07874      1e+10
349 454.41  829.19504      1e+10
350 455.22  839.97974      1e+10
351 456.02  852.64865      1e+10
352 456.83  861.65095      1e+10
353 457.63  864.03069      1e+10
354 458.44  860.37317      1e+10
355 459.24  858.09836      1e+10
356 460.05  862.75796      1e+10
357 460.85   872.9324      1e+10
358 461.66  883.03637      1e+10
359 462.46  888.00925      1e+10
360 463.27  884.54877      1e+10
361 464.08   876.1957      1e+10
362 464.88  869.80697      1e+10
363 465.69  865.43648      1e+10
364 466.49   863.3951      1e+10
365 467.30  864.15802      1e+10
366 468.10  867.85554      1e+10
367 468.91  871.41932      1e+10
368 469.71  870.19704      1e+10
369 470.52  870.06777      1e+10
370 471.32  877.50995      1e+10
371 472.13   887.7515      1e+10
372 472.93  895.14104      1e+10
373 473.73   899.9338      1e+10
374 474.54  902.70436      1e+10
375 475.34  903.23451      1e+10
376 476.15  903.75889      1e+10
377 476.95  908.65456      1e+10
378 477.76  917.47936      1e+10
379 478.56  926.38543      1e+10
380 479.37   932.1498      1e+10
381 480.17  936.58038      1e+10
382 480.98  940.78102      1e+10
383 481.78  942.53414      1e+10
384 482.58  940.34569      1e+10
385 483.39  933.28947      1e+10
386 484.19  916.73801      1e+10
387 485.00  886.16395      1e+10
388 485.80  852.07671      1e+10
389 486.61  837.08194      1e+10
390 487.41   847.3402      1e+10
391 488.21  872.22737      1e+10
392 489.02  898.61631      1e+10
393 489.82  916.88133      1e+10
394 490.63  922.00986      1e+10
395 491.43  917.75265      1e+10
396 492.23  913.04487      1e+10
397 493.04  915.76515      1e+10
398 493.84  926.58433      1e+10
399 494.64  937.51539      1e+10
400 495.45  944.26971      1e+10
401 496.25  947.18549      1e+10
402 497.06  943.83809      1e+10
403 497.86  937.08698      1e+10
404 498.66  929.87834      1e+10
405 499.47  921.59483      1e+10
406 500.27  912.43622      1e+10
407 501.07  904.60703      1e+10
408 501.88  902.87278      1e+10
409 502.68  906.39705      1e+10
410 503.48  912.00593      1e+10
411 504.29  920.16777      1e+10
412 505.09   930.7712      1e+10
413 505.89  938.08449      1e+10
414 506.70   939.3471      1e+10
415 507.50  935.61242      1e+10
416 508.30  933.25252      1e+10
417 509.10  934.11413      1e+10
418 509.91  938.03031      1e+10
419 510.71  941.39357      1e+10
420 511.51  941.07182      1e+10
421 512.32    935.483      1e+10
422 513.12  925.55428      1e+10
423 513.92   915.6744      1e+10
424 514.72  907.58092      1e+10
425 515.53  892.25343      1e+10
426 516.33  868.02808      1e+10
427 517.13  846.27235      1e+10
428 517.93   838.4873      1e+10
429 518.74  849.84628      1e+10
430 519.54  871.61258      1e+10
431 520.34  891.90112      1e+10
432 521.14  905.25072      1e+10
433 521.95  909.66615      1e+10
434 522.75   912.8379      1e+10
435 523.55  919.34671      1e+10
436 524.35  924.54817      1e+10
437 525.15  920.15069      1e+10
438 525.96  903.55502      1e+10
439 526.76  888.30702      1e+10
440 527.56  888.37719      1e+10
441 528.36  902.70135      1e+10
442 529.16  921.26557      1e+10
443 529.97  934.90471      1e+10
444 530.77   938.7243      1e+10
445 531.57  932.73633      1e+10
446 532.37   922.2165      1e+10
447 533.17  915.02775      1e+10
448 533.97  915.87016      1e+10
449 534.78  923.65664      1e+10
450 535.58  929.07291      1e+10
451 536.38   928.7035      1e+10
452 537.18  925.06447      1e+10
453 537.98   920.2069      1e+10
454 538.78  912.87972      1e+10
455 539.58  903.05258      1e+10
456 540.39  895.11008      1e+10
457 541.19   892.6844      1e+10
458 541.99  895.59123      1e+10
459 542.79  901.13979      1e+10
460 543.59  905.97794      1e+10
461 544.39   908.5981      1e+10
462 545.19  910.09585      1e+10
463 545.99    908.428      1e+10
464 546.79  904.42081      1e+10
465 547.59  900.20861      1e+10
466 548.39  898.79151      1e+10
467 549.20  899.02746      1e+10
468 550.00  899.72762      1e+10
469 550.80  898.68782      1e+10
470 551.60  896.18521      1e+10
471 552.40  894.07906      1e+10
472 553.20  893.15851      1e+10
473 554.00  894.13321      1e+10
474 554.80  893.12225      1e+10
475 555.60   888.4733      1e+10
476 556.40  881.57543      1e+10
477 557.20   873.0538      1e+10
478 558.00  862.53822      1e+10
479 558.80  855.03537      1e+10
480 559.60  853.31136      1e+10
481 560.40  853.76636      1e+10
482 561.20  856.90141      1e+10
483 562.00  862.70262      1e+10
484 562.80  865.42776      1e+10
485 563.60  866.49333      1e+10
486 564.40  866.57958      1e+10
487 565.20  864.68849      1e+10
488 566.00  862.21023      1e+10
489 566.80  861.11636      1e+10
490 567.60  862.89549      1e+10
491 568.40  863.36502      1e+10
492 569.20  859.78789      1e+10
493 570.00  854.48858      1e+10
494 570.80  850.60191      1e+10
495 571.60  853.72147      1e+10
496 572.39  862.26315      1e+10
497 573.19  869.83372      1e+10
498 573.99  871.68146      1e+10
499 574.79  866.53502      1e+10
500 575.59  860.22004      1e+10
501 576.39  856.16897      1e+10
502 577.19  851.51441      1e+10
503 577.99  845.69265      1e+10
504 578.79  841.40404      1e+10
505 579.59  840.43497      1e+10
506 580.38  842.33399      1e+10
507 581.18  845.48022      1e+10
508 581.98  848.34693      1e+10
509 582.78  849.70884      1e+10
510 583.58  847.63791      1e+10
511 584.38  841.03276      1e+10
512 585.18  831.75481      1e+10
513 585.97  822.87177      1e+10
514 586.77  815.03706      1e+10
515 587.57  800.85373      1e+10
516 588.37  778.17898      1e+10
517 589.17  758.38837      1e+10
518 589.97   752.4749      1e+10
519 590.76  759.33208      1e+10
520 591.56  771.60644      1e+10
521 592.36  780.45322      1e+10
522 593.16  783.77538      1e+10
523 593.96  783.77243      1e+10
524 594.75  784.26373      1e+10
525 595.55   787.3717      1e+10
526 596.35  791.58595      1e+10
527 597.15  794.18929      1e+10
528 597.94  794.65506      1e+10
529 598.74  794.48487      1e+10
530 599.54    794.415      1e+10
531 600.34  794.77861      1e+10
532 601.13  794.98892      1e+10
533 601.93  797.33246      1e+10
534 602.73  803.17021      1e+10
535 603.53   810.9226      1e+10
536 604.32  816.94636      1e+10
537 605.12  819.92358      1e+10
538 605.92  820.53771      1e+10
539 606.71  820.27609      1e+10
540 607.51  818.89175      1e+10
541 608.31  815.90821      1e+10
542 609.10  812.22634      1e+10
543 609.90  809.34137      1e+10
544 610.70  808.29589      1e+10
545 611.49  808.00492      1e+10
546 612.29  805.96608      1e+10
547 613.09  802.96767      1e+10
548 613.88  800.54675      1e+10
549 614.68  797.43229      1e+10
550 615.48  791.57151      1e+10
551 616.27  786.24477      1e+10
552 617.07  785.94805      1e+10
553 617.87  790.77699      1e+10
554 618.66  796.72417      1e+10
555 619.46  801.24486      1e+10
556 620.25  802.44067      1e+10
557 621.05  800.52893      1e+10
558 621.85  795.98962      1e+10
559 622.64  789.86324      1e+10
560 623.44  783.50493      1e+10
561 624.23  777.44516      1e+10
562 625.03  772.54826      1e+10
563 625.83    770.301      1e+10
564 626.62  767.57354      1e+10
565 627.42   762.1753      1e+10
566 628.21  757.23818      1e+10
567 629.01  753.94321      1e+10
568 629.80  753.69282      1e+10
569 630.60  754.23539      1e+10
570 631.39    755.067      1e+10
571 632.19  758.03038      1e+10
572 632.98  761.34659      1e+10
573 633.78  763.91704      1e+10
574 634.57  765.60081      1e+10
575 635.37   765.9055      1e+10
576 636.16  767.02073      1e+10
577 636.96  769.70191      1e+10
578 637.75   772.5896      1e+10
579 638.55  772.47928      1e+10
580 639.34  768.10224      1e+10
581 640.14  762.13923      1e+10
582 640.93  757.60073      1e+10
583 641.73  756.06512      1e+10
584 642.52  756.16925      1e+10
585 643.32  755.51219      1e+10
586 644.11  752.48135      1e+10
587 644.90  746.78116      1e+10
588 645.70  738.90092      1e+10
589 646.49  730.72878      1e+10
590 647.29  722.99075      1e+10
591 648.08  715.73802      1e+10
592 648.88  707.96697      1e+10
593 649.67  703.91868      1e+10
