% Michal (michal.segalrozenhaimer@nasa.gov) emailed Yohei this file on June 5, 2013.
Col 1: Pixel number
Col 2: Scaled pixel number
Col 3: Wavelength as derived at GSFC [nm]
Col 4: Wavelength from manufacturer [nm]
Col 5: Wavelength in microns
Col 6: Resolution [nm]
1 -1.727 173.182 171.850 0.173182 14.743 
2 -1.723 173.975 172.670 0.173975 14.577 
3 -1.720 174.768 173.480 0.174768 14.412 
4 -1.717 175.562 174.290 0.175562 14.250 
5 -1.713 176.355 175.100 0.176355 14.088 
6 -1.710 177.149 175.910 0.177149 13.928 
7 -1.707 177.943 176.720 0.177943 13.770 
8 -1.703 178.738 177.540 0.178738 13.612 
9 -1.700 179.532 178.350 0.179532 13.457 
10 -1.697 180.327 179.160 0.180327 13.303 
11 -1.694 181.122 179.970 0.181122 13.150 
12 -1.690 181.917 180.780 0.181917 12.998 
13 -1.687 182.712 181.590 0.182712 12.848 
14 -1.684 183.507 182.410 0.183507 12.699 
15 -1.680 184.303 183.220 0.184303 12.552 
16 -1.677 185.098 184.030 0.185098 12.406 
17 -1.674 185.894 184.840 0.185894 12.262 
18 -1.670 186.690 185.650 0.186690 12.119 
19 -1.667 187.487 186.460 0.187487 11.977 
20 -1.664 188.283 187.280 0.188283 11.836 
21 -1.660 189.080 188.090 0.189080 11.697 
22 -1.657 189.876 188.900 0.189876 11.559 
23 -1.654 190.673 189.710 0.190673 11.423 
24 -1.650 191.470 190.520 0.191470 11.288 
25 -1.647 192.267 191.330 0.192267 11.154 
26 -1.644 193.065 192.140 0.193065 11.021 
27 -1.641 193.862 192.960 0.193862 10.890 
28 -1.637 194.660 193.770 0.194660 10.760 
29 -1.634 195.458 194.580 0.195458 10.631 
30 -1.631 196.256 195.390 0.196256 10.504 
31 -1.627 197.054 196.200 0.197054 10.378 
32 -1.624 197.852 197.010 0.197852 10.253 
33 -1.621 198.650 197.830 0.198650 10.129 
34 -1.617 199.449 198.640 0.199449 10.007 
35 -1.614 200.248 199.450 0.200248 9.886 
36 -1.611 201.046 200.260 0.201046 9.766 
37 -1.607 201.845 201.070 0.201845 9.647 
38 -1.604 202.645 201.880 0.202645 9.530 
39 -1.601 203.444 202.690 0.203444 9.413 
40 -1.597 204.243 203.510 0.204243 9.298 
41 -1.594 205.043 204.320 0.205043 9.184 
42 -1.591 205.842 205.130 0.205842 9.072 
43 -1.587 206.642 205.940 0.206642 8.960 
44 -1.584 207.442 206.750 0.207442 8.850 
45 -1.581 208.242 207.560 0.208242 8.741 
46 -1.578 209.042 208.370 0.209042 8.632 
47 -1.574 209.843 209.180 0.209843 8.526 
48 -1.571 210.643 210.000 0.210643 8.420 
49 -1.568 211.444 210.810 0.211444 8.315 
50 -1.564 212.244 211.620 0.212244 8.212 
51 -1.561 213.045 212.430 0.213045 8.109 
52 -1.558 213.846 213.240 0.213846 8.008 
53 -1.554 214.647 214.050 0.214647 7.908 
54 -1.551 215.448 214.860 0.215448 7.809 
55 -1.548 216.250 215.680 0.216250 7.711 
56 -1.544 217.051 216.490 0.217051 7.614 
57 -1.541 217.853 217.300 0.217853 7.519 
58 -1.538 218.654 218.110 0.218654 7.424 
59 -1.534 219.456 218.920 0.219456 7.330 
60 -1.531 220.258 219.730 0.220258 7.238 
61 -1.528 221.060 220.540 0.221060 7.146 
62 -1.525 221.862 221.350 0.221862 7.056 
63 -1.521 222.664 222.170 0.222664 6.967 
64 -1.518 223.466 222.980 0.223466 6.878 
65 -1.515 224.269 223.790 0.224269 6.791 
66 -1.511 225.071 224.600 0.225071 6.705 
67 -1.508 225.874 225.410 0.225874 6.619 
68 -1.505 226.676 226.220 0.226676 6.535 
69 -1.501 227.479 227.030 0.227479 6.452 
70 -1.498 228.282 227.840 0.228282 6.369 
71 -1.495 229.085 228.650 0.229085 6.288 
72 -1.491 229.888 229.470 0.229888 6.208 
73 -1.488 230.691 230.280 0.230691 6.128 
74 -1.485 231.494 231.090 0.231494 6.050 
75 -1.481 232.298 231.900 0.232298 5.973 
76 -1.478 233.101 232.710 0.233101 5.896 
77 -1.475 233.905 233.520 0.233905 5.821 
78 -1.471 234.708 234.330 0.234708 5.746 
79 -1.468 235.512 235.140 0.235512 5.672 
80 -1.465 236.316 235.950 0.236316 5.600 
81 -1.462 237.120 236.770 0.237120 5.528 
82 -1.458 237.924 237.580 0.237924 5.457 
83 -1.455 238.728 238.390 0.238728 5.387 
84 -1.452 239.532 239.200 0.239532 5.318 
85 -1.448 240.336 240.010 0.240336 5.250 
86 -1.445 241.140 240.820 0.241140 5.182 
87 -1.442 241.945 241.630 0.241945 5.116 
88 -1.438 242.749 242.440 0.242749 5.050 
89 -1.435 243.554 243.250 0.243554 4.986 
90 -1.432 244.358 244.060 0.244358 4.922 
91 -1.428 245.163 244.880 0.245163 4.859 
92 -1.425 245.968 245.690 0.245968 4.797 
93 -1.422 246.773 246.500 0.246773 4.736 
94 -1.418 247.577 247.310 0.247577 4.675 
95 -1.415 248.382 248.120 0.248382 4.616 
96 -1.412 249.187 248.930 0.249187 4.557 
97 -1.409 249.993 249.740 0.249993 4.499 
98 -1.405 250.798 250.550 0.250798 4.442 
99 -1.402 251.603 251.360 0.251603 4.386 
100 -1.399 252.408 252.170 0.252408 4.330 
101 -1.395 253.214 252.980 0.253214 4.275 
102 -1.392 254.019 253.790 0.254019 4.222 
103 -1.389 254.825 254.610 0.254825 4.168 
104 -1.385 255.630 255.420 0.255630 4.116 
105 -1.382 256.436 256.230 0.256436 4.064 
106 -1.379 257.241 257.040 0.257241 4.014 
107 -1.375 258.047 257.850 0.258047 3.964 
108 -1.372 258.853 258.660 0.258853 3.914 
109 -1.369 259.659 259.470 0.259659 3.866 
110 -1.365 260.465 260.280 0.260465 3.818 
111 -1.362 261.271 261.090 0.261271 3.771 
112 -1.359 262.077 261.900 0.262077 3.724 
113 -1.355 262.883 262.710 0.262883 3.679 
114 -1.352 263.689 263.520 0.263689 3.634 
115 -1.349 264.495 264.330 0.264495 3.590 
116 -1.346 265.301 265.140 0.265301 3.546 
117 -1.342 266.108 265.950 0.266108 3.503 
118 -1.339 266.914 266.760 0.266914 3.461 
119 -1.336 267.720 267.580 0.267720 3.420 
120 -1.332 268.527 268.390 0.268527 3.379 
121 -1.329 269.333 269.200 0.269333 3.339 
122 -1.326 270.140 270.010 0.270140 3.300 
123 -1.322 270.946 270.820 0.270946 3.261 
124 -1.319 271.753 271.630 0.271753 3.223 
125 -1.316 272.560 272.440 0.272560 3.185 
126 -1.312 273.366 273.250 0.273366 3.149 
127 -1.309 274.173 274.060 0.274173 3.113 
128 -1.306 274.980 274.870 0.274980 3.077 
129 -1.302 275.787 275.680 0.275787 3.042 
130 -1.299 276.594 276.490 0.276594 3.008 
131 -1.296 277.400 277.300 0.277400 2.974 
132 -1.293 278.207 278.110 0.278207 2.941 
133 -1.289 279.014 278.920 0.279014 2.909 
134 -1.286 279.821 279.730 0.279821 2.877 
135 -1.283 280.628 280.540 0.280628 2.846 
136 -1.279 281.435 281.350 0.281435 2.816 
137 -1.276 282.243 282.160 0.282243 2.786 
138 -1.273 283.050 282.970 0.283050 2.756 
139 -1.269 283.857 283.780 0.283857 2.727 
140 -1.266 284.664 284.590 0.284664 2.699 
141 -1.263 285.471 285.400 0.285471 2.671 
142 -1.259 286.279 286.210 0.286279 2.644 
143 -1.256 287.086 287.020 0.287086 2.618 
144 -1.253 287.893 287.830 0.287893 2.592 
145 -1.249 288.701 288.640 0.288701 2.566 
146 -1.246 289.508 289.450 0.289508 2.541 
147 -1.243 290.316 290.260 0.290316 2.517 
148 -1.240 291.123 291.070 0.291123 2.493 
149 -1.236 291.930 291.880 0.291930 2.470 
150 -1.233 292.738 292.690 0.292738 2.447 
151 -1.230 293.545 293.500 0.293545 2.425 
152 -1.226 294.353 294.310 0.294353 2.403 
153 -1.223 295.161 295.120 0.295161 2.382 
154 -1.220 295.968 295.930 0.295968 2.361 
155 -1.216 296.776 296.740 0.296776 2.341 
156 -1.213 297.583 297.550 0.297583 2.321 
157 -1.210 298.391 298.360 0.298391 2.302 
158 -1.206 299.199 299.170 0.299199 2.283 
159 -1.203 300.006 299.980 0.300006 2.265 
160 -1.200 300.814 300.790 0.300814 2.247 
161 -1.196 301.622 301.600 0.301622 2.229 
162 -1.193 302.430 302.410 0.302430 2.213 
163 -1.190 303.237 303.220 0.303237 2.196 
164 -1.186 304.045 304.030 0.304045 2.180 
165 -1.183 304.853 304.840 0.304853 2.165 
166 -1.180 305.661 305.650 0.305661 2.149 
167 -1.177 306.469 306.460 0.306469 2.135 
168 -1.173 307.276 307.270 0.307276 2.121 
169 -1.170 308.084 308.080 0.308084 2.107 
170 -1.167 308.892 308.890 0.308892 2.093 
171 -1.163 309.700 309.700 0.309700 2.080 
172 -1.160 310.508 310.510 0.310508 2.068 
173 -1.157 311.316 311.320 0.311316 2.056 
174 -1.153 312.124 312.130 0.312124 2.044 
175 -1.150 312.932 312.940 0.312932 2.033 
176 -1.147 313.740 313.750 0.313740 2.022 
177 -1.143 314.548 314.560 0.314548 2.011 
178 -1.140 315.355 315.370 0.315355 2.001 
179 -1.137 316.163 316.180 0.316163 1.991 
180 -1.133 316.971 316.980 0.316971 1.982 
181 -1.130 317.779 317.790 0.317779 1.973 
182 -1.127 318.587 318.600 0.318587 1.964 
183 -1.124 319.395 319.410 0.319395 1.956 
184 -1.120 320.203 320.220 0.320203 1.948 
185 -1.117 321.011 321.030 0.321011 1.941 
186 -1.114 321.819 321.840 0.321819 1.933 
187 -1.110 322.627 322.650 0.322627 1.927 
188 -1.107 323.435 323.460 0.323435 1.920 
189 -1.104 324.243 324.270 0.324243 1.914 
190 -1.100 325.051 325.080 0.325051 1.908 
191 -1.097 325.859 325.890 0.325859 1.903 
192 -1.094 326.667 326.700 0.326667 1.898 
193 -1.090 327.475 327.510 0.327475 1.893 
194 -1.087 328.283 328.310 0.328283 1.888 
195 -1.084 329.091 329.120 0.329091 1.884 
196 -1.080 329.899 329.930 0.329899 1.880 
197 -1.077 330.707 330.740 0.330707 1.877 
198 -1.074 331.515 331.550 0.331515 1.874 
199 -1.070 332.323 332.360 0.332323 1.871 
200 -1.067 333.131 333.170 0.333131 1.868 
201 -1.064 333.939 333.980 0.333939 1.866 
202 -1.061 334.747 334.790 0.334747 1.864 
203 -1.057 335.555 335.600 0.335555 1.862 
204 -1.054 336.363 336.400 0.336363 1.860 
205 -1.051 337.171 337.210 0.337171 1.859 
206 -1.047 337.979 338.020 0.337979 1.858 
207 -1.044 338.787 338.830 0.338787 1.858 
208 -1.041 339.595 339.640 0.339595 1.857 
209 -1.037 340.403 340.450 0.340403 1.857 
210 -1.034 341.211 341.260 0.341211 1.857 
211 -1.031 342.019 342.070 0.342019 1.858 
212 -1.027 342.827 342.870 0.342827 1.858 
213 -1.024 343.635 343.680 0.343635 1.859 
214 -1.021 344.443 344.490 0.344443 1.860 
215 -1.017 345.251 345.300 0.345251 1.862 
216 -1.014 346.058 346.110 0.346058 1.863 
217 -1.011 346.866 346.920 0.346866 1.865 
218 -1.008 347.674 347.730 0.347674 1.867 
219 -1.004 348.482 348.530 0.348482 1.870 
220 -1.001 349.290 349.340 0.349290 1.872 
221 -0.998 350.098 350.150 0.350098 1.875 
222 -0.994 350.905 350.960 0.350905 1.878 
223 -0.991 351.713 351.770 0.351713 1.881 
224 -0.988 352.521 352.580 0.352521 1.884 
225 -0.984 353.329 353.390 0.353329 1.888 
226 -0.981 354.137 354.190 0.354137 1.892 
227 -0.978 354.944 355.000 0.354944 1.896 
228 -0.974 355.752 355.810 0.355752 1.900 
229 -0.971 356.560 356.620 0.356560 1.904 
230 -0.968 357.368 357.430 0.357368 1.909 
231 -0.964 358.175 358.240 0.358175 1.914 
232 -0.961 358.983 359.040 0.358983 1.919 
233 -0.958 359.791 359.850 0.359791 1.924 
234 -0.954 360.598 360.660 0.360598 1.929 
235 -0.951 361.406 361.470 0.361406 1.935 
236 -0.948 362.214 362.280 0.362214 1.940 
237 -0.945 363.021 363.080 0.363021 1.946 
238 -0.941 363.829 363.890 0.363829 1.952 
239 -0.938 364.636 364.700 0.364636 1.958 
240 -0.935 365.444 365.510 0.365444 1.965 
241 -0.931 366.251 366.320 0.366251 1.971 
242 -0.928 367.059 367.120 0.367059 1.978 
243 -0.925 367.866 367.930 0.367866 1.985 
244 -0.921 368.674 368.740 0.368674 1.992 
245 -0.918 369.481 369.550 0.369481 1.999 
246 -0.915 370.289 370.360 0.370289 2.006 
247 -0.911 371.096 371.160 0.371096 2.013 
248 -0.908 371.903 371.970 0.371903 2.021 
249 -0.905 372.711 372.780 0.372711 2.028 
250 -0.901 373.518 373.590 0.373518 2.036 
251 -0.898 374.325 374.390 0.374325 2.044 
252 -0.895 375.133 375.200 0.375133 2.052 
253 -0.892 375.940 376.010 0.375940 2.060 
254 -0.888 376.747 376.820 0.376747 2.068 
255 -0.885 377.555 377.630 0.377555 2.077 
256 -0.882 378.362 378.430 0.378362 2.085 
257 -0.878 379.169 379.240 0.379169 2.094 
258 -0.875 379.976 380.050 0.379976 2.103 
259 -0.872 380.783 380.860 0.380783 2.111 
260 -0.868 381.590 381.660 0.381590 2.120 
261 -0.865 382.397 382.470 0.382397 2.129 
262 -0.862 383.205 383.280 0.383205 2.138 
263 -0.858 384.012 384.080 0.384012 2.148 
264 -0.855 384.819 384.890 0.384819 2.157 
265 -0.852 385.626 385.700 0.385626 2.166 
266 -0.848 386.433 386.510 0.386433 2.176 
267 -0.845 387.240 387.310 0.387240 2.185 
268 -0.842 388.046 388.120 0.388046 2.195 
269 -0.838 388.853 388.930 0.388853 2.205 
270 -0.835 389.660 389.740 0.389660 2.214 
271 -0.832 390.467 390.540 0.390467 2.224 
272 -0.829 391.274 391.350 0.391274 2.234 
273 -0.825 392.081 392.160 0.392081 2.244 
274 -0.822 392.887 392.960 0.392887 2.254 
275 -0.819 393.694 393.770 0.393694 2.264 
276 -0.815 394.501 394.580 0.394501 2.274 
277 -0.812 395.308 395.380 0.395308 2.285 
278 -0.809 396.114 396.190 0.396114 2.295 
279 -0.805 396.921 397.000 0.396921 2.305 
280 -0.802 397.727 397.810 0.397727 2.316 
281 -0.799 398.534 398.610 0.398534 2.326 
282 -0.795 399.340 399.420 0.399340 2.337 
283 -0.792 400.147 400.230 0.400147 2.347 
284 -0.789 400.953 401.030 0.400953 2.358 
285 -0.785 401.760 401.840 0.401760 2.369 
286 -0.782 402.566 402.650 0.402566 2.379 
287 -0.779 403.373 403.450 0.403373 2.390 
288 -0.776 404.179 404.260 0.404179 2.401 
289 -0.772 404.985 405.070 0.404985 2.412 
290 -0.769 405.792 405.870 0.405792 2.423 
291 -0.766 406.598 406.680 0.406598 2.433 
292 -0.762 407.404 407.490 0.407404 2.444 
293 -0.759 408.210 408.290 0.408210 2.455 
294 -0.756 409.017 409.100 0.409017 2.466 
295 -0.752 409.823 409.900 0.409823 2.477 
296 -0.749 410.629 410.710 0.410629 2.488 
297 -0.746 411.435 411.520 0.411435 2.499 
298 -0.742 412.241 412.320 0.412241 2.510 
299 -0.739 413.047 413.130 0.413047 2.521 
300 -0.736 413.853 413.940 0.413853 2.532 
301 -0.732 414.659 414.740 0.414659 2.543 
302 -0.729 415.465 415.550 0.415465 2.554 
303 -0.726 416.271 416.350 0.416271 2.565 
304 -0.722 417.076 417.160 0.417076 2.576 
305 -0.719 417.882 417.970 0.417882 2.588 
306 -0.716 418.688 418.770 0.418688 2.599 
307 -0.713 419.494 419.580 0.419494 2.610 
308 -0.709 420.300 420.380 0.420300 2.621 
309 -0.706 421.105 421.190 0.421105 2.632 
310 -0.703 421.911 422.000 0.421911 2.643 
311 -0.699 422.717 422.800 0.422717 2.654 
312 -0.696 423.522 423.610 0.423522 2.665 
313 -0.693 424.328 424.410 0.424328 2.676 
314 -0.689 425.133 425.220 0.425133 2.687 
315 -0.686 425.939 426.030 0.425939 2.698 
316 -0.683 426.744 426.830 0.426744 2.709 
317 -0.679 427.549 427.640 0.427549 2.720 
318 -0.676 428.355 428.440 0.428355 2.731 
319 -0.673 429.160 429.250 0.429160 2.742 
320 -0.669 429.965 430.050 0.429965 2.753 
321 -0.666 430.771 430.860 0.430771 2.764 
322 -0.663 431.576 431.660 0.431576 2.775 
323 -0.660 432.381 432.470 0.432381 2.786 
324 -0.656 433.186 433.280 0.433186 2.796 
325 -0.653 433.991 434.080 0.433991 2.807 
326 -0.650 434.797 434.890 0.434797 2.818 
327 -0.646 435.602 435.690 0.435602 2.829 
328 -0.643 436.407 436.500 0.436407 2.839 
329 -0.640 437.212 437.300 0.437212 2.850 
330 -0.636 438.017 438.110 0.438017 2.861 
331 -0.633 438.821 438.910 0.438821 2.871 
332 -0.630 439.626 439.720 0.439626 2.882 
333 -0.626 440.431 440.520 0.440431 2.892 
334 -0.623 441.236 441.330 0.441236 2.903 
335 -0.620 442.041 442.130 0.442041 2.913 
336 -0.616 442.845 442.940 0.442845 2.924 
337 -0.613 443.650 443.740 0.443650 2.934 
338 -0.610 444.455 444.550 0.444455 2.944 
339 -0.606 445.259 445.350 0.445259 2.954 
340 -0.603 446.064 446.160 0.446064 2.965 
341 -0.600 446.868 446.960 0.446868 2.975 
342 -0.597 447.673 447.770 0.447673 2.985 
343 -0.593 448.477 448.570 0.448477 2.995 
344 -0.590 449.282 449.380 0.449282 3.005 
345 -0.587 450.086 450.180 0.450086 3.015 
346 -0.583 450.891 450.990 0.450891 3.025 
347 -0.580 451.695 451.790 0.451695 3.034 
348 -0.577 452.499 452.600 0.452499 3.044 
349 -0.573 453.303 453.400 0.453303 3.054 
350 -0.570 454.108 454.200 0.454108 3.063 
351 -0.567 454.912 455.010 0.454912 3.073 
352 -0.563 455.716 455.810 0.455716 3.082 
353 -0.560 456.520 456.620 0.456520 3.092 
354 -0.557 457.324 457.420 0.457324 3.101 
355 -0.553 458.128 458.230 0.458128 3.111 
356 -0.550 458.932 459.030 0.458932 3.120 
357 -0.547 459.736 459.830 0.459736 3.129 
358 -0.544 460.540 460.640 0.460540 3.138 
359 -0.540 461.344 461.440 0.461344 3.147 
360 -0.537 462.147 462.250 0.462147 3.156 
361 -0.534 462.951 463.050 0.462951 3.165 
362 -0.530 463.755 463.860 0.463755 3.174 
363 -0.527 464.559 464.660 0.464559 3.183 
364 -0.524 465.362 465.460 0.465362 3.191 
365 -0.520 466.166 466.270 0.466166 3.200 
366 -0.517 466.969 467.070 0.466969 3.208 
367 -0.514 467.773 467.870 0.467773 3.217 
368 -0.510 468.576 468.680 0.468576 3.225 
369 -0.507 469.380 469.480 0.469380 3.233 
370 -0.504 470.183 470.290 0.470183 3.242 
371 -0.500 470.987 471.090 0.470987 3.250 
372 -0.497 471.790 471.890 0.471790 3.258 
373 -0.494 472.593 472.700 0.472593 3.266 
374 -0.490 473.396 473.500 0.473396 3.274 
375 -0.487 474.200 474.300 0.474200 3.282 
376 -0.484 475.003 475.110 0.475003 3.289 
377 -0.481 475.806 475.910 0.475806 3.297 
378 -0.477 476.609 476.710 0.476609 3.304 
379 -0.474 477.412 477.520 0.477412 3.312 
380 -0.471 478.215 478.320 0.478215 3.319 
381 -0.467 479.018 479.120 0.479018 3.327 
382 -0.464 479.821 479.930 0.479821 3.334 
383 -0.461 480.624 480.730 0.480624 3.341 
384 -0.457 481.427 481.530 0.481427 3.348 
385 -0.454 482.229 482.340 0.482229 3.355 
386 -0.451 483.032 483.140 0.483032 3.362 
387 -0.447 483.835 483.940 0.483835 3.368 
388 -0.444 484.638 484.750 0.484638 3.375 
389 -0.441 485.440 485.550 0.485440 3.382 
390 -0.437 486.243 486.350 0.486243 3.388 
391 -0.434 487.045 487.160 0.487045 3.395 
392 -0.431 487.848 487.960 0.487848 3.401 
393 -0.428 488.650 488.760 0.488650 3.407 
394 -0.424 489.453 489.560 0.489453 3.413 
395 -0.421 490.255 490.370 0.490255 3.419 
396 -0.418 491.057 491.170 0.491057 3.425 
397 -0.414 491.860 491.970 0.491860 3.431 
398 -0.411 492.662 492.770 0.492662 3.437 
399 -0.408 493.464 493.580 0.493464 3.442 
400 -0.404 494.266 494.380 0.494266 3.448 
401 -0.401 495.068 495.180 0.495068 3.453 
402 -0.398 495.871 495.980 0.495871 3.459 
403 -0.394 496.673 496.790 0.496673 3.464 
404 -0.391 497.475 497.590 0.497475 3.469 
405 -0.388 498.277 498.390 0.498277 3.474 
406 -0.384 499.079 499.190 0.499079 3.479 
407 -0.381 499.880 500.000 0.499880 3.484 
408 -0.378 500.682 500.800 0.500682 3.489 
409 -0.375 501.484 501.600 0.501484 3.493 
410 -0.371 502.286 502.400 0.502286 3.498 
411 -0.368 503.087 503.200 0.503087 3.502 
412 -0.365 503.889 504.010 0.503889 3.507 
413 -0.361 504.691 504.810 0.504691 3.511 
414 -0.358 505.492 505.610 0.505492 3.515 
415 -0.355 506.294 506.410 0.506294 3.519 
416 -0.351 507.095 507.210 0.507095 3.523 
417 -0.348 507.897 508.020 0.507897 3.527 
418 -0.345 508.698 508.820 0.508698 3.531 
419 -0.341 509.500 509.620 0.509500 3.535 
420 -0.338 510.301 510.420 0.510301 3.538 
421 -0.335 511.102 511.220 0.511102 3.542 
422 -0.331 511.903 512.020 0.511903 3.545 
423 -0.328 512.705 512.830 0.512705 3.548 
424 -0.325 513.506 513.630 0.513506 3.551 
425 -0.321 514.307 514.430 0.514307 3.554 
426 -0.318 515.108 515.230 0.515108 3.557 
427 -0.315 515.909 516.030 0.515909 3.560 
428 -0.312 516.710 516.830 0.516710 3.563 
429 -0.308 517.511 517.630 0.517511 3.566 
430 -0.305 518.312 518.440 0.518312 3.568 
431 -0.302 519.113 519.240 0.519113 3.571 
432 -0.298 519.913 520.040 0.519913 3.573 
433 -0.295 520.714 520.840 0.520714 3.575 
434 -0.292 521.515 521.640 0.521515 3.577 
435 -0.288 522.316 522.440 0.522316 3.579 
436 -0.285 523.116 523.240 0.523116 3.581 
437 -0.282 523.917 524.040 0.523917 3.583 
438 -0.278 524.717 524.840 0.524717 3.585 
439 -0.275 525.518 525.640 0.525518 3.586 
440 -0.272 526.318 526.450 0.526318 3.588 
441 -0.268 527.119 527.250 0.527119 3.589 
442 -0.265 527.919 528.050 0.527919 3.591 
443 -0.262 528.719 528.850 0.528719 3.592 
444 -0.259 529.520 529.650 0.529520 3.593 
445 -0.255 530.320 530.450 0.530320 3.594 
446 -0.252 531.120 531.250 0.531120 3.595 
447 -0.249 531.920 532.050 0.531920 3.596 
448 -0.245 532.720 532.850 0.532720 3.596 
449 -0.242 533.520 533.650 0.533520 3.597 
450 -0.239 534.321 534.450 0.534321 3.597 
451 -0.235 535.120 535.250 0.535120 3.598 
452 -0.232 535.920 536.050 0.535920 3.598 
453 -0.229 536.720 536.850 0.536720 3.598 
454 -0.225 537.520 537.650 0.537520 3.598 
455 -0.222 538.320 538.450 0.538320 3.598 
456 -0.219 539.120 539.250 0.539120 3.598 
457 -0.215 539.919 540.050 0.539919 3.598 
458 -0.212 540.719 540.850 0.540719 3.598 
459 -0.209 541.519 541.650 0.541519 3.597 
460 -0.205 542.318 542.450 0.542318 3.597 
